File: 114-CorticalBoneElasticity/Group2/01_Raman/data/pmma.csv
AP Cora 5001
Software_Version;1.4.1
[SAMPLE]
Sample_Name;pmma
Method;
[PARAMETERS]
Instrument_Type;Cora 5001
Instrument_SN;99119713
Last_SST;3/28/2024 12:19:13 PM +00:00
User_Name;labmanager
Measurement_Started;3/28/2024 3:01:18 PM
Measurement_Finished;3/28/2024 3:01:39 PM
Measurement_Saved;3/28/2024 3:01:39 PM
Wavelength;785
Laser_Power;50
Auto_Exposure;False
Exposure_Time;10000
Averaged_Spectra;1
Probe_Type;Regular Probe (785 nm)
Probe_SN;99101107
Dark_Background;True
User_Background_Spectrum;
Spike_Removal;False
Baseline_Correction;True
Smoothing;False
Normalization;None
[SPECTRUM QUALITY]
Quality_Saturation;False
Quality_SBR;0.56
Quality_Temperature;False
[SPECTRUM]
100.00;8608.68
108.00;7136.54
116.00;5213.16
124.00;3400.10
132.00;2014.34
140.00;1109.55
148.00;590.14
156.00;317.36
164.00;158.42
172.00;92.00
180.00;48.75
188.00;19.99
196.00;5.66
204.00;4.87
212.00;-6.42
220.00;-0.84
228.00;-5.42
236.00;2.22
244.00;-3.10
252.00;-9.92
260.00;-12.89
268.00;-5.68
276.00;1.62
284.00;17.04
292.00;26.35
300.00;32.20
308.00;25.27
316.00;2.90
324.00;-4.09
332.00;-1.04
340.00;9.53
348.00;32.08
356.00;63.23
364.00;91.92
372.00;95.47
380.00;72.62
388.00;52.45
396.00;34.98
404.00;12.62
412.00;-1.54
420.00;-4.92
428.00;-12.19
436.00;-7.06
444.00;-7.13
452.00;-7.69
460.00;14.18
468.00;29.86
476.00;62.70
484.00;87.66
492.00;74.31
500.00;47.11
508.00;24.48
516.00;8.09
524.00;2.14
532.00;-7.50
540.00;4.61
548.00;24.03
556.00;41.41
564.00;51.15
572.00;57.13
580.00;85.89
588.00;164.83
596.00;291.35
604.00;307.42
612.00;174.47
620.00;102.74
628.00;54.17
636.00;33.32
644.00;18.36
652.00;10.54
660.00;8.05
668.00;-0.03
676.00;-0.73
684.00;-8.56
692.00;-13.57
700.00;-9.24
708.00;-14.85
716.00;-8.04
724.00;-1.27
732.00;14.33
740.00;6.22
748.00;-5.57
756.00;1.05
764.00;12.20
772.00;23.39
780.00;27.54
788.00;46.87
796.00;92.08
804.00;297.42
812.00;785.62
820.00;258.69
828.00;51.89
836.00;23.58
844.00;28.94
852.00;4.14
860.00;-9.79
868.00;-4.96
876.00;5.28
884.00;1.16
892.00;-1.04
900.00;13.06
908.00;38.05
916.00;39.33
924.00;29.02
932.00;35.24
940.00;53.12
948.00;88.22
956.00;173.24
964.00;268.30
972.00;268.78
980.00;268.73
988.00;293.97
996.00;277.05
1004.00;200.02
1012.00;13.31
1020.00;5.04
1028.00;-11.93
1036.00;-15.73
1044.00;-20.46
1052.00;-9.90
1060.00;14.73
1068.00;16.12
1076.00;1.21
1084.00;3.97
1092.00;8.48
1100.00;28.59
1108.00;57.97
1116.00;94.73
1124.00;110.11
1132.00;77.23
1140.00;58.06
1148.00;68.47
1156.00;105.21
1164.00;96.68
1172.00;100.35
1180.00;129.48
1188.00;123.74
1196.00;101.14
1204.00;85.77
1212.00;66.72
1220.00;54.36
1228.00;59.06
1236.00;85.79
1244.00;77.41
1252.00;54.12
1260.00;16.84
1268.00;12.66
1276.00;1.70
1284.00;-11.02
1292.00;-14.80
1300.00;-3.25
1308.00;13.34
1316.00;14.75
1324.00;27.17
1332.00;22.72
1340.00;0.02
1348.00;-9.87
1356.00;-11.93
1364.00;-7.07
1372.00;-9.35
1380.00;8.28
1388.00;27.51
1396.00;19.73
1404.00;10.78
1412.00;5.51
1420.00;38.16
1428.00;117.14
1436.00;241.26
1444.00;405.42
1452.00;480.38
1460.00;412.81
1468.00;271.37
1476.00;173.75
1484.00;153.23
1492.00;99.41
1500.00;40.05
1508.00;9.77
1516.00;5.66
1524.00;-0.23
1532.00;-11.96
1540.00;-7.02
1548.00;-6.41
1556.00;-1.07
1564.00;-2.88
1572.00;-3.84
1580.00;-3.01
1588.00;13.02
1596.00;51.36
1604.00;70.70
1612.00;18.98
1620.00;8.04
1628.00;3.92
1636.00;4.57
1644.00;7.80
1652.00;-11.01
1660.00;-2.43
1668.00;-16.79
1676.00;-6.20
1684.00;1.38
1692.00;7.73
1700.00;15.81
1708.00;28.50
1716.00;117.26
1724.00;231.09
1732.00;214.22
1740.00;170.80
1748.00;70.41
1756.00;24.93
1764.00;2.42
1772.00;4.42
1780.00;1.60
1788.00;10.69
1796.00;-1.77
1804.00;4.40
1812.00;-2.21
1820.00;-6.34
1828.00;1.92
1836.00;-5.37
1844.00;-1.58
1852.00;6.82
1860.00;4.27
1868.00;-1.04
1876.00;1.16
1884.00;0.13
1892.00;-9.84
1900.00;-9.63
1908.00;-5.95
1916.00;-1.03
1924.00;12.63
1932.00;-1.51
1940.00;13.50
1948.00;7.98
1956.00;17.10
1964.00;-0.31
1972.00;-7.21
1980.00;-3.51
1988.00;-3.05
1996.00;-6.20
2004.00;-4.89
2012.00;-4.17
2020.00;6.10
2028.00;6.18
2036.00;-4.47
2044.00;-13.16
2052.00;5.83
2060.00;-1.76
2068.00;-4.49
2076.00;5.29
2084.00;-2.94
2092.00;5.85
2100.00;-6.96
2108.00;16.71
2116.00;0.22
2124.00;-3.83
2132.00;-14.72
2140.00;15.13
2148.00;6.78
2156.00;9.94
2164.00;-18.90
2172.00;4.41
2180.00;6.02
2188.00;5.35
2196.00;-13.19
2204.00;11.24
2212.00;-8.36
2220.00;8.30
2228.00;9.84
2236.00;-4.09
2244.00;-16.99
2252.00;10.71
2260.00;8.28
2268.00;-7.18
2276.00;-21.18
2284.00;-2.53
2292.00;5.08
2300.00;25.14
[ANALYSIS RESULT]
Analysis_Type;None