File: 114-CorticalBoneElasticity/Group2/01_Raman/data/Polystyrene.csv
AP Cora 5001
Software_Version;1.4.1
[SAMPLE]
Sample_Name;Polystyrene
Method;
[PARAMETERS]
Instrument_Type;Cora 5001
Instrument_SN;99119713
Last_SST;3/28/2024 12:19:13 PM +00:00
User_Name;labmanager
Measurement_Started;3/28/2024 2:46:59 PM
Measurement_Finished;3/28/2024 2:47:10 PM
Measurement_Saved;3/28/2024 2:47:10 PM
Wavelength;785
Laser_Power;10
Auto_Exposure;False
Exposure_Time;5000
Averaged_Spectra;1
Probe_Type;Regular Probe (785 nm)
Probe_SN;99101107
Dark_Background;True
User_Background_Spectrum;
Spike_Removal;False
Baseline_Correction;True
Smoothing;False
Normalization;None
[SPECTRUM QUALITY]
Quality_Saturation;False
Quality_SBR;0.33
Quality_Temperature;False
[SPECTRUM]
100.00;1729.00
108.00;1866.63
116.00;1850.95
124.00;1725.88
132.00;1525.32
140.00;1295.80
148.00;1106.67
156.00;937.94
164.00;824.17
172.00;732.10
180.00;653.78
188.00;594.39
196.00;570.92
204.00;567.55
212.00;581.21
220.00;585.71
228.00;533.01
236.00;434.57
244.00;318.69
252.00;213.88
260.00;137.89
268.00;88.22
276.00;50.96
284.00;27.52
292.00;14.67
300.00;1.19
308.00;-3.71
316.00;-4.49
324.00;-8.43
332.00;-5.67
340.00;-2.97
348.00;-0.77
356.00;2.82
364.00;2.90
372.00;9.79
380.00;26.76
388.00;49.70
396.00;70.21
404.00;91.04
412.00;92.38
420.00;74.31
428.00;54.02
436.00;40.57
444.00;26.42
452.00;13.57
460.00;2.29
468.00;-4.59
476.00;-5.06
484.00;-11.99
492.00;-6.92
500.00;-6.29
508.00;-7.19
516.00;-7.11
524.00;8.97
532.00;17.79
540.00;31.14
548.00;33.14
556.00;28.07
564.00;15.71
572.00;17.86
580.00;4.75
588.00;8.54
596.00;7.61
604.00;18.43
612.00;86.59
620.00;415.01
628.00;183.92
636.00;75.12
644.00;21.04
652.00;2.01
660.00;-7.50
668.00;-9.27
676.00;-12.30
684.00;-13.05
692.00;-8.30
700.00;3.99
708.00;10.23
716.00;2.47
724.00;-2.16
732.00;20.55
740.00;87.31
748.00;132.65
756.00;185.04
764.00;186.90
772.00;157.22
780.00;178.13
788.00;294.02
796.00;367.33
804.00;234.54
812.00;115.39
820.00;28.68
828.00;5.26
836.00;29.51
844.00;38.46
852.00;6.91
860.00;3.19
868.00;0.40
876.00;-0.73
884.00;-0.03
892.00;6.86
900.00;41.88
908.00;46.91
916.00;2.82
924.00;-14.19
932.00;-17.41
940.00;-5.05
948.00;6.31
956.00;17.60
964.00;60.42
972.00;88.44
980.00;198.02
988.00;500.15
996.00;1985.72
1004.00;3325.80
1012.00;533.82
1020.00;340.10
1028.00;944.07
1036.00;819.49
1044.00;276.33
1052.00;170.32
1060.00;160.80
1068.00;183.63
1076.00;170.99
1084.00;146.55
1092.00;146.47
1100.00;123.90
1108.00;60.88
1116.00;17.80
1124.00;-14.30
1132.00;-7.32
1140.00;28.62
1148.00;188.99
1156.00;402.89
1164.00;224.45
1172.00;275.68
1180.00;599.88
1188.00;584.11
1196.00;626.50
1204.00;567.85
1212.00;294.66
1220.00;171.56
1228.00;129.55
1236.00;73.14
1244.00;38.80
1252.00;22.40
1260.00;9.01
1268.00;-4.27
1276.00;-5.77
1284.00;12.04
1292.00;37.85
1300.00;73.19
1308.00;99.09
1316.00;129.69
1324.00;181.34
1332.00;166.82
1340.00;110.01
1348.00;66.71
1356.00;65.66
1364.00;60.52
1372.00;57.92
1380.00;22.01
1388.00;-9.74
1396.00;-9.98
1404.00;-2.23
1412.00;-1.58
1420.00;-0.47
1428.00;12.82
1436.00;85.40
1444.00;223.98
1452.00;262.29
1460.00;99.21
1468.00;12.36
1476.00;3.65
1484.00;-6.76
1492.00;9.58
1500.00;0.85
1508.00;-6.88
1516.00;-8.11
1524.00;-5.43
1532.00;-2.54
1540.00;-6.74
1548.00;3.28
1556.00;11.85
1564.00;37.07
1572.00;96.20
1580.00;361.52
1588.00;371.49
1596.00;566.42
1604.00;1009.48
1612.00;401.22
1620.00;149.33
1628.00;139.45
1636.00;87.96
1644.00;14.79
1652.00;11.29
1660.00;0.89
1668.00;3.76
1676.00;-3.44
1684.00;-5.48
1692.00;-3.23
1700.00;-1.32
1708.00;-3.20
1716.00;-1.46
1724.00;-5.89
1732.00;-9.73
1740.00;2.94
1748.00;-3.15
1756.00;-0.44
1764.00;1.78
1772.00;6.34
1780.00;-6.32
1788.00;-3.92
1796.00;-8.50
1804.00;2.15
1812.00;-2.90
1820.00;-0.77
1828.00;1.76
1836.00;-3.68
1844.00;3.15
1852.00;-4.46
1860.00;-5.75
1868.00;-1.97
1876.00;7.85
1884.00;-1.90
1892.00;-5.03
1900.00;5.12
1908.00;4.13
1916.00;1.67
1924.00;6.74
1932.00;14.02
1940.00;5.43
1948.00;-9.49
1956.00;-2.90
1964.00;3.02
1972.00;3.32
1980.00;-0.60
1988.00;5.38
1996.00;4.37
2004.00;-19.22
2012.00;6.61
2020.00;8.53
2028.00;-18.09
2036.00;-0.21
2044.00;-7.97
2052.00;-17.99
2060.00;-0.40
2068.00;-9.58
2076.00;3.41
2084.00;-11.66
2092.00;-9.72
2100.00;0.23
2108.00;8.21
2116.00;-1.14
2124.00;-1.45
2132.00;3.27
2140.00;12.30
2148.00;2.48
2156.00;1.19
2164.00;-4.88
2172.00;6.88
2180.00;15.26
2188.00;-11.33
2196.00;28.51
2204.00;-27.04
2212.00;-8.67
2220.00;-5.68
2228.00;-6.67
2236.00;18.41
2244.00;9.60
2252.00;-16.79
2260.00;-7.65
2268.00;5.06
2276.00;23.58
2284.00;23.50
2292.00;-6.12
2300.00;-4.01
[ANALYSIS RESULT]
Analysis_Type;None