File: 114-CorticalBoneElasticity/Group2/01_Raman/data/rubber.csv
AP Cora 5001
Software_Version;1.4.1
[SAMPLE]
Sample_Name;rubber
Method;
[PARAMETERS]
Instrument_Type;Cora 5001
Instrument_SN;99119713
Last_SST;3/28/2024 12:19:13 PM +00:00
User_Name;labmanager
Measurement_Started;3/28/2024 4:36:31 PM
Measurement_Finished;3/28/2024 4:37:32 PM
Measurement_Saved;3/28/2024 4:37:32 PM
Wavelength;785
Laser_Power;10
Auto_Exposure;False
Exposure_Time;10000
Averaged_Spectra;3
Probe_Type;Regular Probe (785 nm)
Probe_SN;99101107
Dark_Background;True
User_Background_Spectrum;
Spike_Removal;True
Baseline_Correction;False
Smoothing;False
Normalization;None
[SPECTRUM QUALITY]
Quality_Saturation;False
Quality_SBR;NaN
Quality_Temperature;False
[SPECTRUM]
100.00;7784.76
108.00;6620.61
116.00;5197.22
124.00;3755.73
132.00;2634.39
140.00;1877.15
148.00;1418.79
156.00;1142.39
164.00;960.00
172.00;837.70
180.00;752.95
188.00;688.59
196.00;635.59
204.00;605.18
212.00;592.30
220.00;589.90
228.00;585.42
236.00;584.51
244.00;590.06
252.00;614.03
260.00;660.63
268.00;736.08
276.00;840.56
284.00;864.82
292.00;778.71
300.00;702.71
308.00;644.80
316.00;584.46
324.00;552.37
332.00;542.50
340.00;536.26
348.00;539.85
356.00;542.88
364.00;540.68
372.00;532.41
380.00;520.77
388.00;521.49
396.00;519.61
404.00;525.16
412.00;535.37
420.00;548.09
428.00;565.77
436.00;596.88
444.00;621.50
452.00;612.84
460.00;575.89
468.00;525.11
476.00;479.41
484.00;452.54
492.00;432.72
500.00;424.33
508.00;421.01
516.00;415.81
524.00;416.25
532.00;421.59
540.00;420.53
548.00;426.72
556.00;428.82
564.00;436.26
572.00;448.65
580.00;466.05
588.00;487.09
596.00;537.19
604.00;595.16
612.00;647.36
620.00;651.35
628.00;636.20
636.00;634.70
644.00;610.33
652.00;586.15
660.00;484.21
668.00;448.19
676.00;456.86
684.00;479.68
692.00;513.16
700.00;518.77
708.00;565.20
716.00;535.09
724.00;428.40
732.00;388.74
740.00;376.29
748.00;370.94
756.00;370.76
764.00;369.18
772.00;362.42
780.00;359.60
788.00;367.17
796.00;378.81
804.00;388.51
812.00;394.37
820.00;397.30
828.00;397.01
836.00;400.39
844.00;406.80
852.00;407.86
860.00;398.27
868.00;392.86
876.00;395.82
884.00;393.95
892.00;395.27
900.00;378.83
908.00;359.79
916.00;355.84
924.00;350.98
932.00;349.48
940.00;349.22
948.00;351.07
956.00;368.36
964.00;377.31
972.00;375.39
980.00;363.46
988.00;349.73
996.00;345.61
1004.00;343.89
1012.00;344.63
1020.00;364.08
1028.00;397.80
1036.00;544.37
1044.00;535.74
1052.00;410.79
1060.00;395.89
1068.00;420.72
1076.00;486.18
1084.00;1438.72
1092.00;843.89
1100.00;418.52
1108.00;376.12
1116.00;379.37
1124.00;396.53
1132.00;392.61
1140.00;377.24
1148.00;364.58
1156.00;382.55
1164.00;440.99
1172.00;390.40
1180.00;362.71
1188.00;352.19
1196.00;348.06
1204.00;345.19
1212.00;344.49
1220.00;343.11
1228.00;347.10
1236.00;361.49
1244.00;382.05
1252.00;404.27
1260.00;428.59
1268.00;463.09
1276.00;487.31
1284.00;500.66
1292.00;515.77
1300.00;532.66
1308.00;512.18
1316.00;469.40
1324.00;452.34
1332.00;440.08
1340.00;422.28
1348.00;406.28
1356.00;393.61
1364.00;384.98
1372.00;378.26
1380.00;372.17
1388.00;377.68
1396.00;360.30
1404.00;352.75
1412.00;362.81
1420.00;404.75
1428.00;491.98
1436.00;592.15
1444.00;598.31
1452.00;568.52
1460.00;539.34
1468.00;480.15
1476.00;409.05
1484.00;376.92
1492.00;369.92
1500.00;346.21
1508.00;343.99
1516.00;328.02
1524.00;326.82
1532.00;323.80
1540.00;330.75
1548.00;328.28
1556.00;323.20
1564.00;337.13
1572.00;355.54
1580.00;414.16
1588.00;386.95
1596.00;459.56
1604.00;484.08
1612.00;362.31
1620.00;332.30
1628.00;323.17
1636.00;308.35
1644.00;309.16
1652.00;305.58
1660.00;305.72
1668.00;309.79
1676.00;303.00
1684.00;302.69
1692.00;305.98
1700.00;310.63
1708.00;329.03
1716.00;393.24
1724.00;456.18
1732.00;443.08
1740.00;386.32
1748.00;353.03
1756.00;311.51
1764.00;290.92
1772.00;291.45
1780.00;280.54
1788.00;278.34
1796.00;274.90
1804.00;271.68
1812.00;273.68
1820.00;268.70
1828.00;269.98
1836.00;264.69
1844.00;265.09
1852.00;254.21
1860.00;255.93
1868.00;248.40
1876.00;249.40
1884.00;245.67
1892.00;249.51
1900.00;250.88
1908.00;250.13
1916.00;247.55
1924.00;243.26
1932.00;243.50
1940.00;242.64
1948.00;243.33
1956.00;249.33
1964.00;247.00
1972.00;245.82
1980.00;237.52
1988.00;233.08
1996.00;242.00
2004.00;240.67
2012.00;237.57
2020.00;241.36
2028.00;240.82
2036.00;237.19
2044.00;245.89
2052.00;243.68
2060.00;229.72
2068.00;228.07
2076.00;230.45
2084.00;247.78
2092.00;229.82
2100.00;240.51
2108.00;237.56
2116.00;246.67
2124.00;242.99
2132.00;249.14
2140.00;236.43
2148.00;238.26
2156.00;237.93
2164.00;239.77
2172.00;249.21
2180.00;245.44
2188.00;245.24
2196.00;253.50
2204.00;256.23
2212.00;251.72
2220.00;257.57
2228.00;249.56
2236.00;241.11
2244.00;251.70
2252.00;253.26
2260.00;256.24
2268.00;253.39
2276.00;267.32
2284.00;254.77
2292.00;270.72
2300.00;256.30
[ANALYSIS RESULT]
Analysis_Type;None